Fuel cell
 Voltage controlled: 2.77 V
 Scan rate: 0.50 s
 23.10.2024 15:08:48
 
 Time [s]	Voltage [V]	Current [A]	Power [W]
0.145000	3.440938	0.000000	0.000000
0.645000	3.451680	0.001844	0.006365
1.145000	2.774922	0.062677	0.173924
1.645000	2.759453	0.062677	0.172954
2.145000	2.757734	0.062677	0.172846
2.645000	2.759024	0.060834	0.167842
3.145000	2.757734	0.060834	0.167764
3.645000	2.760312	0.058990	0.162831
4.145000	2.759024	0.058990	0.162755
4.645000	2.758164	0.058990	0.162704
5.145000	2.762890	0.057147	0.157891
5.645000	2.761602	0.057147	0.157817
6.145000	2.760312	0.057147	0.157744
6.645000	2.758164	0.057147	0.157621
7.145000	2.757305	0.057147	0.157572
7.645000	2.761602	0.057147	0.157817
8.145000	2.760742	0.057147	0.157768
8.645000	2.760312	0.057147	0.157744
9.145000	2.759883	0.055303	0.152630
9.645000	2.758594	0.057147	0.157645
10.145000	2.759453	0.055303	0.152606
10.645000	2.762461	0.057147	0.157866
11.145000	2.759024	0.057147	0.157670
11.645000	2.758164	0.057147	0.157621
12.145000	2.757305	0.057147	0.157572
12.645000	2.760742	0.055303	0.152677
13.145000	2.760312	0.055303	0.152654
13.645000	2.759883	0.055303	0.152630
14.145000	2.759024	0.055303	0.152582
14.645000	2.758594	0.055303	0.152559
15.145000	2.762890	0.053460	0.147704
15.645000	2.763320	0.053460	0.147727
16.145000	2.763320	0.053460	0.147727
16.645000	2.758594	0.055303	0.152559
17.145000	2.761602	0.053460	0.147635
17.645000	2.761602	0.055303	0.152725
18.145000	2.762890	0.053460	0.147704
18.645000	2.762031	0.053460	0.147658
19.145000	2.761172	0.053460	0.147612
19.645000	2.762031	0.053460	0.147658
20.145000	2.758164	0.055303	0.152535
20.645000	2.761602	0.053460	0.147635
21.145000	2.758164	0.055303	0.152535
21.645000	2.762031	0.053460	0.147658
22.145000	2.758164	0.053460	0.147451
22.645000	2.758594	0.055303	0.152559
23.145000	2.761172	0.055303	0.152701
23.645000	2.760312	0.055303	0.152654
24.145000	2.760312	0.053460	0.147566
24.645000	2.758594	0.053460	0.147474
25.145000	2.763320	0.053460	0.147727
25.645000	2.759024	0.053460	0.147497
26.145000	2.760742	0.053460	0.147589
26.645000	2.760312	0.053460	0.147566
27.145000	2.764180	0.053460	0.147773
27.645000	2.763750	0.051616	0.142654
28.145000	2.759883	0.053460	0.147543
28.645000	2.758594	0.053460	0.147474
29.145000	2.762461	0.053460	0.147681
29.645000	2.758164	0.053460	0.147451
30.145000	2.757734	0.053460	0.147428
30.645000	2.761172	0.051616	0.142521
31.145000	2.759883	0.053460	0.147543
31.645000	2.759883	0.053460	0.147543
32.145000	2.760312	0.053460	0.147566
32.645000	2.759883	0.053460	0.147543
33.145000	2.759883	0.051616	0.142454
33.645000	2.760742	0.051616	0.142498
34.145000	2.760312	0.053460	0.147566
34.645000	2.760742	0.051616	0.142498
35.145000	2.761172	0.053460	0.147612
35.645000	2.761172	0.053460	0.147612
36.145000	2.762461	0.053460	0.147681
36.645000	2.763320	0.053460	0.147727
37.145000	2.764609	0.053460	0.147796
37.645000	2.760312	0.053460	0.147566
38.145000	2.760312	0.053460	0.147566
38.645000	2.763320	0.051616	0.142632
39.145000	2.759883	0.053460	0.147543
39.645000	2.759883	0.055303	0.152630
40.145000	2.763320	0.051616	0.142632
40.645000	2.759024	0.055303	0.152582
41.145000	2.763320	0.053460	0.147727
41.645000	2.759024	0.055303	0.152582
42.145000	2.758594	0.053460	0.147474
42.645000	2.762461	0.053460	0.147681
43.145000	2.758164	0.055303	0.152535
43.645000	2.761172	0.053460	0.147612
44.145000	2.760312	0.053460	0.147566
44.645000	2.761172	0.053460	0.147612
45.145000	2.760312	0.051616	0.142476
45.645000	2.759453	0.053460	0.147520
46.145000	2.759024	0.053460	0.147497
46.645000	2.759453	0.053460	0.147520
47.145000	2.759024	0.051616	0.142410
47.645000	2.762031	0.053460	0.147658
48.145000	2.758594	0.053460	0.147474
48.645000	2.760312	0.053460	0.147566
49.145000	2.760312	0.051616	0.142476
49.645000	2.760312	0.051616	0.142476
50.145000	2.761172	0.051616	0.142521
50.645000	2.762031	0.051616	0.142565
51.145000	2.761602	0.051616	0.142543
51.645000	2.763320	0.053460	0.147727
52.145000	2.762461	0.051616	0.142587
52.645000	2.761602	0.053460	0.147635
53.145000	2.758164	0.051616	0.142365
53.645000	2.761172	0.051616	0.142521
54.145000	2.762031	0.053460	0.147658
54.645000	2.761172	0.053460	0.147612
55.145000	2.761172	0.051616	0.142521
55.645000	2.760312	0.053460	0.147566
56.145000	2.760312	0.053460	0.147566
56.645000	2.759883	0.051616	0.142454
57.145000	2.759883	0.051616	0.142454
57.645000	2.760312	0.053460	0.147566
58.145000	2.765469	0.051616	0.142742
58.645000	2.761602	0.051616	0.142543
59.145000	2.762031	0.053460	0.147658
59.645000	2.762031	0.051616	0.142565
60.145000	2.762461	0.051616	0.142587
60.645000	2.762031	0.051616	0.142565
61.145000	2.762461	0.051616	0.142587
61.645000	2.761172	0.051616	0.142521
62.145000	2.761602	0.053460	0.147635
62.645000	2.760742	0.051616	0.142498
63.145000	2.759883	0.053460	0.147543
63.645000	2.759453	0.053460	0.147520
64.145000	2.759883	0.053460	0.147543
64.645000	2.762031	0.051616	0.142565
65.145000	2.760742	0.051616	0.142498
65.645000	2.761602	0.051616	0.142543
66.145000	2.761602	0.053460	0.147635
66.645000	2.762461	0.051616	0.142587
67.145000	2.762890	0.051616	0.142609
67.645000	2.763320	0.051616	0.142632
68.145000	2.763750	0.051616	0.142654
68.645000	2.759453	0.053460	0.147520
69.145000	2.759883	0.053460	0.147543
69.645000	2.762890	0.053460	0.147704
70.145000	2.758594	0.053460	0.147474
70.645000	2.760312	0.053460	0.147566
71.145000	2.763320	0.051616	0.142632
71.645000	2.758594	0.053460	0.147474
72.145000	2.763750	0.051616	0.142654
72.645000	2.759453	0.053460	0.147520
73.145000	2.759453	0.051616	0.142432
73.645000	2.763320	0.053460	0.147727
74.145000	2.763320	0.051616	0.142632
74.645000	2.762890	0.051616	0.142609
75.145000	2.759024	0.053460	0.147497
75.645000	2.757734	0.053460	0.147428
76.145000	2.761602	0.053460	0.147635
76.645000	2.761602	0.053460	0.147635
77.145000	2.760742	0.053460	0.147589
77.645000	2.759883	0.053460	0.147543
78.145000	2.759024	0.053460	0.147497
78.645000	2.759024	0.051616	0.142410
79.145000	2.759453	0.051616	0.142432
79.645000	2.763320	0.051616	0.142632
80.145000	2.759453	0.051616	0.142432
80.645000	2.762890	0.051616	0.142609
81.145000	2.758594	0.053460	0.147474
81.645000	2.762461	0.051616	0.142587
82.145000	2.762890	0.051616	0.142609
82.645000	2.758594	0.051616	0.142388
83.145000	2.759024	0.051616	0.142410
83.645000	2.763320	0.051616	0.142632
84.145000	2.758164	0.053460	0.147451
84.645000	2.761172	0.051616	0.142521
85.145000	2.762461	0.051616	0.142587
85.647000	2.761602	0.051616	0.142543
86.145000	2.760742	0.051616	0.142498
86.645000	2.760742	0.051616	0.142498
87.145000	2.760312	0.051616	0.142476
87.645000	2.759883	0.051616	0.142454
88.145000	2.759453	0.051616	0.142432
88.645000	2.760742	0.051616	0.142498
89.145000	2.764180	0.049773	0.137582
89.645000	2.759024	0.051616	0.142410
90.145000	2.763750	0.049773	0.137560
90.645000	2.759453	0.051616	0.142432
91.145000	2.759453	0.051616	0.142432
91.645000	2.759024	0.051616	0.142410
92.145000	2.759453	0.051616	0.142432
92.645000	2.758594	0.051616	0.142388
93.145000	2.759453	0.051616	0.142432
93.645000	2.762890	0.051616	0.142609
94.145000	2.759453	0.051616	0.142432
94.645000	2.762461	0.049773	0.137496
95.145000	2.762031	0.049773	0.137475
95.645000	2.758594	0.051616	0.142388
96.145000	2.758594	0.051616	0.142388
96.645000	2.758594	0.051616	0.142388
97.145000	2.758164	0.053460	0.147451
97.645000	2.762031	0.051616	0.142565
98.145000	2.757734	0.051616	0.142343
98.645000	2.760742	0.051616	0.142498
99.145000	2.758594	0.051616	0.142388
99.645000	2.762461	0.051616	0.142587
100.145000	2.761602	0.049773	0.137453
100.645000	2.762461	0.051616	0.142587
101.145000	2.759024	0.051616	0.142410
101.645000	2.762031	0.049773	0.137475
102.145000	2.763320	0.051616	0.142632
102.645000	2.759024	0.051616	0.142410
103.145000	2.762461	0.051616	0.142587
103.645000	2.762890	0.051616	0.142609
104.145000	2.762031	0.051616	0.142565
104.645000	2.762461	0.049773	0.137496
105.145000	2.762890	0.051616	0.142609
105.645000	2.760742	0.049773	0.137410
106.145000	2.762461	0.049773	0.137496
106.645000	2.762461	0.051616	0.142587
107.145000	2.757734	0.051616	0.142343
107.645000	2.758164	0.051616	0.142365
108.145000	2.758594	0.051616	0.142388
108.645000	2.762890	0.049773	0.137517
109.145000	2.758164	0.051616	0.142365
109.645000	2.758164	0.051616	0.142365
110.145000	2.763320	0.049773	0.137539
110.645000	2.758164	0.051616	0.142365
111.145000	2.762031	0.049773	0.137475
111.645000	2.758164	0.051616	0.142365
112.146000	2.760742	0.051616	0.142498
112.645000	2.762890	0.047930	0.132425
113.145000	2.762890	0.049773	0.137517
113.645000	2.762461	0.049773	0.137496
114.145000	2.761602	0.049773	0.137453
114.645000	2.762031	0.049773	0.137475
115.145000	2.762031	0.049773	0.137475
115.645000	2.762461	0.049773	0.137496
116.145000	2.762461	0.051616	0.142587
116.645000	2.762031	0.049773	0.137475
117.145000	2.762461	0.049773	0.137496
117.645000	2.762461	0.051616	0.142587
118.145000	2.762461	0.049773	0.137496
118.645000	2.762461	0.049773	0.137496
119.145000	2.762031	0.049773	0.137475
119.645000	2.760742	0.049773	0.137410
120.145000	2.761172	0.049773	0.137432
