Fuel cell
 Voltage controlled: 1.48 V
 Scan rate: 0.50 s
 23.10.2024 15:00:57
 
 Time [s]	Voltage [V]	Current [A]	Power [W]
0.295000	3.499375	0.001844	0.006453
0.795000	2.501640	0.164066	0.410434
1.295000	2.069375	0.313385	0.648511
1.795000	1.870859	0.396340	0.741496
2.295000	1.720039	0.462704	0.795869
2.795000	1.631094	0.497729	0.811843
3.295000	1.568359	0.521694	0.818203
3.795000	1.518945	0.536441	0.814824
4.295000	1.489297	0.543815	0.809902
4.795000	1.464375	0.545658	0.799048
5.295000	1.450195	0.545658	0.791311
5.795000	1.435156	0.541972	0.777814
6.295000	1.424844	0.538285	0.766972
6.795000	1.417969	0.530911	0.752815
7.295000	1.414961	0.519850	0.735567
7.795000	1.412813	0.512477	0.724034
8.295000	1.412383	0.503259	0.710794
8.795000	1.413242	0.497729	0.703412
9.295000	1.414961	0.486668	0.688616
9.795000	1.418398	0.479295	0.679831
10.295000	1.431719	0.471921	0.675658
10.795000	1.440312	0.470077	0.677058
11.295000	1.451055	0.466391	0.676759
11.795000	1.480273	0.466391	0.690386
12.295000	1.499180	0.471921	0.707495
12.795000	1.485859	0.477451	0.709425
13.295000	1.465664	0.479295	0.702485
13.795000	1.450625	0.479295	0.695277
14.295000	1.445898	0.477451	0.690345
14.795000	1.446758	0.471921	0.682755
15.295000	1.457500	0.471921	0.687825
15.795000	1.474258	0.473764	0.698450
16.295000	1.478984	0.475608	0.703417
16.795000	1.473828	0.477451	0.703681
17.295000	1.460937	0.479295	0.700220
17.795000	1.450195	0.477451	0.692397
18.297000	1.445898	0.475608	0.687681
18.795000	1.439023	0.473764	0.681757
19.295000	1.427422	0.466391	0.665737
19.795000	1.423555	0.460860	0.656060
20.295000	1.428711	0.453486	0.647900
20.795000	1.428711	0.449800	0.642634
21.295000	1.429141	0.442426	0.632289
21.795000	1.431719	0.438739	0.628151
22.295000	1.436016	0.435052	0.624742
22.795000	1.437305	0.427678	0.614704
23.295000	1.436875	0.425835	0.611872
23.795000	1.443320	0.420305	0.606635
24.295000	1.446328	0.418461	0.605232
24.795000	1.448477	0.414774	0.600791
25.295000	1.449336	0.414774	0.601147
25.795000	1.447617	0.412931	0.597766
26.295000	1.446328	0.407400	0.589234
26.795000	1.447188	0.405557	0.586917
27.295000	1.447617	0.403714	0.584423
27.795000	1.449336	0.401870	0.582445
28.297000	1.451914	0.398183	0.578127
28.795000	1.451055	0.398183	0.577785
29.295000	1.453633	0.396340	0.576133
29.795000	1.455352	0.394496	0.574131
30.295000	1.460078	0.394496	0.575995
30.795000	1.464805	0.394496	0.577860
31.295000	1.469531	0.396340	0.582434
31.795000	1.473828	0.398183	0.586853
32.295000	1.479414	0.401870	0.594532
32.795000	1.494453	0.403714	0.603332
33.295000	1.503047	0.411087	0.617883
33.795000	1.515937	0.422148	0.639950
34.295000	1.535273	0.431365	0.662263
34.795000	1.542148	0.444269	0.685129
35.295000	1.542578	0.459017	0.708070
35.795000	1.538711	0.473764	0.728986
36.295000	1.533555	0.486668	0.746332
36.795000	1.518086	0.497729	0.755595
37.295000	1.495742	0.508790	0.761019
37.795000	1.481992	0.512477	0.759487
38.295000	1.467812	0.514320	0.754925
38.795000	1.460078	0.514320	0.750947
39.295000	1.459219	0.514320	0.750506
39.795000	1.467383	0.514320	0.754704
40.295000	1.470391	0.516163	0.758961
40.795000	1.466523	0.516163	0.756965
41.295000	1.462226	0.518007	0.757443
41.795000	1.457070	0.518007	0.754772
42.295000	1.451484	0.516163	0.749202
42.795000	1.448477	0.516163	0.747650
43.295000	1.445469	0.512477	0.740770
43.795000	1.444609	0.510633	0.737665
44.295000	1.438594	0.503259	0.723985
44.795000	1.433867	0.503259	0.721606
45.295000	1.433438	0.495886	0.710822
45.795000	1.433438	0.490355	0.702893
46.295000	1.433008	0.486668	0.697399
46.795000	1.432148	0.481138	0.689061
47.295000	1.431719	0.475608	0.680937
47.795000	1.426992	0.471921	0.673427
48.295000	1.431289	0.464547	0.664901
48.795000	1.433867	0.459017	0.658169
49.295000	1.429141	0.453486	0.648095
49.795000	1.429141	0.447956	0.640192
50.295000	1.428711	0.442426	0.632099
50.795000	1.434297	0.435052	0.623994
51.295000	1.441601	0.433209	0.624515
51.795000	1.445039	0.429522	0.620676
52.295000	1.445469	0.427678	0.618195
52.795000	1.444609	0.425835	0.615165
53.295000	1.448477	0.422148	0.611472
53.795000	1.454063	0.420305	0.611150
54.295000	1.473828	0.420305	0.619457
54.795000	1.494883	0.425835	0.636574
55.295000	1.511211	0.433209	0.654670
55.795000	1.512930	0.438739	0.663781
56.295000	1.508203	0.449800	0.678390
56.795000	1.500469	0.457173	0.685974
57.295000	1.493164	0.462704	0.690893
57.795000	1.476836	0.468234	0.691505
58.295000	1.463086	0.470077	0.687763
58.795000	1.453633	0.470077	0.683319
59.295000	1.451914	0.466391	0.677160
59.795000	1.454922	0.466391	0.678563
60.295000	1.459648	0.466391	0.680767
60.795000	1.459648	0.466391	0.680767
61.295000	1.455781	0.464547	0.676279
61.795000	1.449336	0.462704	0.670614
62.295000	1.449766	0.460860	0.668139
62.795000	1.454492	0.459017	0.667637
63.295000	1.466953	0.459017	0.673356
63.795000	1.464805	0.460860	0.675070
64.295000	1.454492	0.462704	0.672999
64.795000	1.448477	0.459017	0.664876
65.295000	1.441601	0.457173	0.659061
65.795000	1.441172	0.451643	0.650895
66.295000	1.442461	0.449800	0.648819
66.795000	1.444180	0.444269	0.641604
67.295000	1.445039	0.442426	0.639323
67.795000	1.441172	0.440582	0.634954
68.295000	1.442031	0.435052	0.627358
68.795000	1.442461	0.433209	0.624887
69.295000	1.447188	0.429522	0.621599
69.795000	1.450195	0.427678	0.620216
70.295000	1.452774	0.425835	0.618642
70.795000	1.457930	0.425835	0.620838
71.295000	1.470820	0.423991	0.623614
71.795000	1.480273	0.429522	0.635810
72.295000	1.478555	0.431365	0.637797
72.795000	1.477695	0.435052	0.642874
73.295000	1.478125	0.438739	0.648511
73.795000	1.484570	0.440582	0.654075
74.295000	1.494023	0.444269	0.663748
74.795000	1.500039	0.449800	0.674718
75.295000	1.498320	0.459017	0.687754
75.795000	1.493594	0.466391	0.696599
76.295000	1.494453	0.471921	0.705264
76.795000	1.484141	0.477451	0.708605
77.295000	1.466523	0.479295	0.702897
77.795000	1.447617	0.477451	0.691166
78.295000	1.438594	0.475608	0.684207
78.795000	1.434727	0.470077	0.674432
79.295000	1.434297	0.466391	0.668943
79.795000	1.445039	0.462704	0.668625
80.295000	1.469961	0.460860	0.677446
80.795000	1.481133	0.462704	0.685326
81.295000	1.478555	0.468234	0.692310
81.795000	1.479844	0.470077	0.695641
82.295000	1.472539	0.473764	0.697636
82.797000	1.457930	0.475608	0.693403
83.295000	1.445039	0.471921	0.681944
83.795000	1.437734	0.468234	0.673196
84.295000	1.434727	0.464547	0.666498
84.795000	1.431289	0.459017	0.656986
85.295000	1.433008	0.453486	0.649849
85.795000	1.433438	0.449800	0.644760
86.295000	1.437734	0.446113	0.641392
86.795000	1.439883	0.438739	0.631733
87.295000	1.440312	0.435052	0.626611
87.795000	1.442890	0.433209	0.625073
88.295000	1.447617	0.429522	0.621783
88.795000	1.454492	0.429522	0.624736
89.295000	1.461797	0.429522	0.627874
89.795000	1.467812	0.429522	0.630458
90.295000	1.467383	0.429522	0.630273
90.795000	1.466523	0.431365	0.632607
91.295000	1.463086	0.431365	0.631124
91.795000	1.460937	0.431365	0.630197
92.295000	1.458359	0.429522	0.626397
92.795000	1.452344	0.429522	0.623814
93.297000	1.451055	0.429522	0.623260
93.795000	1.447617	0.425835	0.616446
94.295000	1.445898	0.425835	0.615714
94.795000	1.446758	0.420305	0.608080
95.295000	1.446758	0.416618	0.602745
95.795000	1.445898	0.418461	0.605052
96.295000	1.445898	0.414774	0.599721
96.795000	1.447188	0.411087	0.594920
97.295000	1.449336	0.409244	0.593132
97.795000	1.448906	0.405557	0.587614
98.295000	1.448047	0.403714	0.584597
98.795000	1.448477	0.401870	0.582099
99.295000	1.448477	0.398183	0.576759
99.795000	1.449766	0.396340	0.574600
100.295000	1.450625	0.394496	0.572266
100.795000	1.450625	0.392653	0.569592
101.295000	1.453203	0.390809	0.567925
101.795000	1.454492	0.390809	0.568429
102.295000	1.454492	0.390809	0.568429
102.795000	1.454492	0.388966	0.565748
103.295000	1.455781	0.387123	0.563566
103.795000	1.456641	0.387123	0.563899
104.295000	1.457500	0.385279	0.561544
104.795000	1.454492	0.387123	0.563067
105.295000	1.455781	0.383436	0.558199
105.795000	1.456641	0.383436	0.558529
106.295000	1.457500	0.381592	0.556170
106.795000	1.455781	0.381592	0.555514
107.295000	1.457930	0.379749	0.553647
107.795000	1.456211	0.379749	0.552995
108.295000	1.459219	0.377905	0.551446
108.795000	1.457930	0.379749	0.553647
109.295000	1.460078	0.377905	0.551771
109.795000	1.459648	0.377905	0.551608
110.295000	1.457930	0.377905	0.550959
110.795000	1.460937	0.376062	0.549403
111.295000	1.460078	0.374219	0.546389
111.795000	1.460078	0.376062	0.549080
112.295000	1.459648	0.374219	0.546228
112.795000	1.460937	0.376062	0.549403
113.295000	1.463086	0.374219	0.547515
113.795000	1.464805	0.376062	0.550857
114.295000	1.462226	0.377905	0.552583
114.795000	1.462226	0.377905	0.552583
115.295000	1.461797	0.377905	0.552420
115.795000	1.461797	0.377905	0.552420
116.295000	1.463086	0.377905	0.552908
116.795000	1.464375	0.377905	0.553395
117.295000	1.463945	0.379749	0.555932
117.795000	1.465664	0.379749	0.556584
118.295000	1.462656	0.379749	0.555442
118.795000	1.463086	0.379749	0.555605
119.295000	1.462226	0.377905	0.552583
119.795000	1.461797	0.379749	0.555116
120.295000	1.462226	0.379749	0.555279
