Fuel cell
 Voltage controlled: 1.80 V
 Scan rate: 0.50 s
 23.10.2024 14:57:36
 
 Time [s]	Voltage [V]	Current [A]	Power [W]
0.018000	3.480469	0.001844	0.006418
0.518000	2.612930	0.129041	0.337175
1.018000	2.258437	0.230430	0.520412
1.518000	2.070664	0.298637	0.618377
2.018000	1.972266	0.339193	0.668979
2.518000	1.897070	0.366845	0.695931
3.018000	1.854101	0.381592	0.707510
3.518000	1.821445	0.390809	0.711837
4.018000	1.801680	0.394496	0.710756
4.518000	1.786640	0.396340	0.708117
5.018000	1.777617	0.394496	0.701263
5.518000	1.772891	0.394496	0.699398
6.018000	1.766875	0.390809	0.690511
6.518000	1.766016	0.387123	0.683665
7.018000	1.766016	0.383436	0.677154
7.518000	1.765156	0.379749	0.670316
8.018000	1.763438	0.376062	0.663162
8.518000	1.765156	0.370532	0.654047
9.018000	1.764727	0.368688	0.650634
9.518000	1.766016	0.365001	0.644598
10.018000	1.766875	0.363158	0.641655
10.518000	1.767305	0.357628	0.632038
11.018000	1.769453	0.353941	0.626282
11.518000	1.770313	0.350254	0.620059
12.018000	1.770742	0.350254	0.620209
12.518000	1.771172	0.346567	0.613830
13.018000	1.772891	0.344723	0.611156
13.518000	1.774609	0.342880	0.608478
14.018000	1.776328	0.341037	0.605794
14.518000	1.775469	0.339193	0.602227
15.018000	1.777617	0.337350	0.599679
15.518000	1.778477	0.335506	0.596690
16.019000	1.780195	0.333663	0.593985
16.518000	1.782773	0.331819	0.591558
17.018000	1.783633	0.331819	0.591843
17.518000	1.782773	0.331819	0.591558
18.018000	1.783633	0.331819	0.591843
18.518000	1.784922	0.331819	0.592271
19.018000	1.787070	0.331819	0.592984
19.518000	1.787930	0.333663	0.596566
20.018000	1.787070	0.331819	0.592984
20.518000	1.784922	0.331819	0.592271
21.018000	1.783203	0.331819	0.591701
21.518000	1.787070	0.331819	0.592984
22.018000	1.788359	0.331819	0.593411
22.518000	1.793516	0.331819	0.595123
23.018000	1.795234	0.331819	0.595693
23.518000	1.792656	0.335506	0.601447
24.018000	1.793945	0.337350	0.605187
24.518000	1.793945	0.339193	0.608494
25.018000	1.793516	0.339193	0.608348
25.518000	1.787500	0.341037	0.609604
26.018000	1.783203	0.341037	0.608138
26.518000	1.790078	0.341037	0.610483
27.018000	1.805976	0.342880	0.619233
27.518000	1.814570	0.346567	0.628870
28.018000	1.812852	0.350254	0.634959
28.518000	1.809414	0.353941	0.640426
29.018000	1.801680	0.357628	0.644331
29.518000	1.795664	0.361314	0.648799
30.018000	1.789648	0.363158	0.649925
30.518000	1.784492	0.363158	0.648053
31.018000	1.779336	0.363158	0.646180
31.518000	1.778906	0.359471	0.639465
32.018000	1.776758	0.359471	0.638693
32.518000	1.775039	0.357628	0.634804
33.018000	1.778477	0.353941	0.629476
33.518000	1.780625	0.353941	0.630236
34.018000	1.781055	0.350254	0.623822
34.518000	1.777617	0.352097	0.625894
35.018000	1.775898	0.350254	0.622015
35.518000	1.772461	0.348410	0.617543
36.018000	1.772461	0.346567	0.614276
36.518000	1.772031	0.342880	0.607594
37.018000	1.772461	0.339193	0.601206
37.518000	1.772461	0.337350	0.597940
38.018000	1.773320	0.335506	0.594959
38.518000	1.774180	0.331819	0.588707
39.018000	1.775898	0.331819	0.589277
39.518000	1.777188	0.328133	0.583154
40.018000	1.777617	0.328133	0.583295
40.518000	1.778477	0.326289	0.580297
41.018000	1.779336	0.324446	0.577298
41.518000	1.779766	0.324446	0.577438
42.018000	1.783633	0.324446	0.578693
42.518000	1.786211	0.324446	0.579529
43.018000	1.789219	0.324446	0.580505
43.518000	1.785351	0.324446	0.579250
44.018000	1.787070	0.324446	0.579808
44.518000	1.787500	0.322602	0.576651
45.018000	1.788789	0.324446	0.580365
45.518000	1.796953	0.324446	0.583014
46.018000	1.799102	0.326289	0.587027
46.518000	1.799531	0.328133	0.590486
47.018000	1.796953	0.329976	0.592951
47.518000	1.793516	0.331819	0.595123
48.018000	1.790938	0.333663	0.597570
48.518000	1.790078	0.335506	0.600582
49.018000	1.786640	0.335506	0.599428
49.518000	1.785781	0.335506	0.599140
50.018000	1.785351	0.331819	0.592413
50.518000	1.781484	0.333663	0.594415
51.018000	1.780195	0.331819	0.590703
51.518000	1.780195	0.331819	0.590703
52.018000	1.781484	0.331819	0.591130
52.518000	1.782773	0.329976	0.588272
53.018000	1.788359	0.331819	0.593411
53.518000	1.799531	0.329976	0.593802
54.018000	1.807265	0.333663	0.603017
54.518000	1.809414	0.339193	0.613741
55.018000	1.808125	0.342880	0.619970
55.518000	1.804258	0.346567	0.625296
56.018000	1.798242	0.348410	0.626525
56.518000	1.795664	0.350254	0.628938
57.018000	1.790938	0.350254	0.627283
57.518000	1.786640	0.350254	0.625778
58.018000	1.785351	0.350254	0.625326
58.518000	1.785351	0.350254	0.625326
59.018000	1.787070	0.350254	0.625928
59.518000	1.783633	0.350254	0.624725
60.018000	1.778047	0.350254	0.622768
60.518000	1.778477	0.350254	0.622919
61.018000	1.775898	0.348410	0.618741
61.518000	1.776758	0.346567	0.615766
62.018000	1.775898	0.344723	0.612193
62.518000	1.772891	0.342880	0.607889
63.018000	1.772461	0.341037	0.604475
63.518000	1.772891	0.339193	0.601352
64.018000	1.773320	0.337350	0.598230
64.518000	1.774609	0.331819	0.588849
65.018000	1.775469	0.329976	0.585862
65.518000	1.776758	0.328133	0.583013
66.018000	1.776328	0.328133	0.582872
66.518000	1.778477	0.324446	0.577020
67.018000	1.780195	0.324446	0.577577
67.518000	1.779766	0.324446	0.577438
68.018000	1.781484	0.320759	0.571427
68.518000	1.781914	0.320759	0.571565
69.018000	1.779336	0.320759	0.570738
69.518000	1.780625	0.318915	0.567868
70.018000	1.781484	0.318915	0.568142
70.518000	1.783203	0.317072	0.565404
71.018000	1.782344	0.317072	0.565131
71.518000	1.783633	0.315228	0.562251
72.018000	1.783633	0.315228	0.562251
72.518000	1.784492	0.315228	0.562522
73.018000	1.785781	0.315228	0.562928
73.518000	1.786211	0.315228	0.563064
74.018000	1.786211	0.315228	0.563064
74.518000	1.786211	0.315228	0.563064
75.018000	1.787070	0.315228	0.563335
75.518000	1.793945	0.315228	0.565502
76.018000	1.798672	0.317072	0.570309
76.518000	1.804687	0.320759	0.578870
77.018000	1.802109	0.324446	0.584687
77.518000	1.797813	0.326289	0.586607
78.018000	1.792656	0.328133	0.588230
78.518000	1.786211	0.328133	0.586115
79.018000	1.785351	0.328133	0.585833
79.518000	1.785781	0.329976	0.589265
80.018000	1.787070	0.328133	0.586397
80.518000	1.789219	0.328133	0.587102
81.018000	1.791797	0.329976	0.591250
81.518000	1.793086	0.331819	0.594980
82.018000	1.793945	0.331819	0.595265
82.518000	1.798242	0.331819	0.596691
83.018000	1.800820	0.335506	0.604186
83.518000	1.799961	0.339193	0.610534
84.018000	1.799102	0.342880	0.616876
84.518000	1.796953	0.344723	0.619451
85.018000	1.798242	0.344723	0.619895
85.518000	1.797383	0.346567	0.622914
86.018000	1.790938	0.348410	0.623981
86.518000	1.786211	0.350254	0.625628
87.018000	1.784062	0.346567	0.618297
87.518000	1.784062	0.348410	0.621585
88.018000	1.791797	0.348410	0.624280
88.518000	1.793516	0.348410	0.624879
89.018000	1.789648	0.350254	0.626831
89.518000	1.790508	0.348410	0.623831
90.018000	1.789219	0.352097	0.629979
90.518000	1.780195	0.352097	0.626801
91.018000	1.774180	0.350254	0.621414
91.518000	1.772031	0.346567	0.614127
92.018000	1.774609	0.346567	0.615021
92.518000	1.772031	0.342880	0.607594
93.018000	1.773320	0.341037	0.604768
93.518000	1.855820	0.344723	0.639744
94.018000	1.860976	0.359471	0.668967
94.518000	1.828320	0.366845	0.670710
95.018000	1.860117	0.377905	0.702948
95.518000	1.847226	0.388966	0.718508
96.018000	1.827891	0.400027	0.731206
96.518000	1.811562	0.405557	0.734692
97.018000	1.796953	0.407400	0.732079
97.518000	1.783633	0.409244	0.729941
98.018000	1.774609	0.407400	0.722976
98.518000	1.767734	0.405557	0.716917
99.018000	1.762578	0.401870	0.708327
99.518000	1.765156	0.398183	0.702855
100.018000	1.762578	0.394496	0.695330
100.518000	1.766016	0.388966	0.686920
101.018000	1.772461	0.387123	0.686160
101.518000	1.772461	0.383436	0.679625
102.018000	1.767305	0.381592	0.674389
102.518000	1.760000	0.376062	0.661869
103.018000	1.761289	0.372375	0.655860
103.518000	1.772891	0.370532	0.656913
104.018000	1.793086	0.368688	0.661089
104.518000	1.794805	0.370532	0.665033
105.018000	1.791797	0.368688	0.660614
105.518000	1.784922	0.370532	0.661371
106.018000	1.783203	0.368688	0.657446
106.518000	1.780195	0.370532	0.659619
107.018000	1.783633	0.370532	0.660893
107.518000	1.783633	0.370532	0.660893
108.018000	1.781055	0.366845	0.653371
108.518000	1.774609	0.365001	0.647734
109.018000	1.773320	0.366845	0.650534
109.518000	1.770313	0.363158	0.642903
110.018000	1.772031	0.359471	0.636994
110.518000	1.772461	0.357628	0.633882
111.018000	1.775039	0.353941	0.628259
111.518000	1.779336	0.353941	0.629780
112.018000	1.786211	0.352097	0.628920
112.518000	1.789219	0.350254	0.626681
113.018000	1.786211	0.353941	0.632213
113.518000	1.787070	0.353941	0.632517
114.018000	1.785781	0.352097	0.628768
114.518000	1.782773	0.350254	0.624423
115.018000	1.783633	0.352097	0.628012
115.518000	1.787070	0.350254	0.625928
116.018000	1.798672	0.350254	0.629992
116.518000	1.804258	0.355784	0.641926
117.018000	1.805547	0.357628	0.645714
117.518000	1.804258	0.363158	0.655231
118.018000	1.811562	0.365001	0.661222
118.518000	1.815000	0.370532	0.672516
119.018000	1.808125	0.374219	0.676635
119.518000	1.801680	0.379749	0.684186
120.018000	1.790508	0.383436	0.686545
